VAMAS Surface Chemical Analysis Standard Data Transfer Format 1988 May 4
Not Specified
Not Specified
Not Specified
Not Specified
7
Casa Info Follows CasaXPS Version 2.3.24PR1.0
0
SourceAnalyserAngle: Not Specified
CasaRowLabel:Fe metal
CasaRowLabel:FeO
CasaRowLabel:Fe3O4
CasaRowLabel:Fe2O3
NORM
REGULAR
0
1
Exp Variable
d
0
0
0
0
4
Fe2p
Fe metal
7
2021
5
18
14
57
0
11
Casa Info Follows
0
0
0
0
none
Group: none
Analyzer Lens: none
Analyzer Slit: none
Scan Mode: none
C:\Users\pielsticker\Downloads\utils\test fits\new\Fe2p_Fe_metal_new.vms
XPS
0
Al
1486.61
0
0
0
56.5
180
FAT
20
1
4.1408
0
0
0
0
0
Fe
2p
-1
kinetic energy
eV
716.61
0.05
2
counts
d
Transmission
d
pulse counting
0.1
3
0
0
0
0
2
ESCAPE DEPTH TYPE
d
0
MFP Exponent
d
0
3402
1134.46
54850.3
1
1
12642.4
1
12642.4
1
12750.4
1
12750.4
1
12747
1
12747
1
12676.4
1
12676.4
1
12700.3
1
12700.3
1
12656.3
1
12656.3
1
12646.5
1
12646.5
1
12687.5
1
12687.5
1
12662.3
1
12662.3
1
12614.1
1
12614.1
1
12635.7
1
12635.7
1
12578
1
12578
1
12593.5
1
12593.5
1
12608.5
1
12608.5
1
12516.3
1
12516.3
1
12437.1
1
12437.1
1
12508.5
1
12508.5
1
12494.1
1
12494.1
1
12416.5
1
12416.5
1
12424
1
12424
1
12440.7
1
12440.7
1
12357.8
1
12357.8
1
12322.2
1
12322.2
1
12269.3
1
12269.3
1
12280.6
1
12280.6
1
12275.5
1
12275.5
1
12282
1
12282
1
12171.7
1
12171.7
1
12193.4
1
12193.4
1
12172.2
1
12172.2
1
12208.3
1
12208.3
1
12168.2
1
12168.2
1
12178.8
1
12178.8
1
12150.5
1
12150.5
1
12145.5
1
12145.5
1
12089.5
1
12089.5
1
12090.8
1
12090.8
1
12104
1
12104
1
12052
1
12052
1
12084.1
1
12084.1
1
12059.8
1
12059.8
1
12015.8
1
12015.8
1
12116.2
1
12116.2
1
12035
1
12035
1
12040.3
1
12040.3
1
12046.4
1
12046.4
1
12052.4
1
12052.4
1
12040.3
1
12040.3
1
12064.5
1
12064.5
1
12089.1
1
12089.1
1
12063.5
1
12063.5
1
12006.4
1
12006.4
1
12001.9
1
12001.9
1
11981.6
1
11981.6
1
12029.8
1
12029.8
1
12059.9
1
12059.9
1
11992.5
1
11992.5
1
12041.7
1
12041.7
1
11977.4
1
11977.4
1
12007.9
1
12007.9
1
11926.1
1
11926.1
1
12045.3
1
12045.3
1
12040.6
1
12040.6
1
12021.8
1
12021.8
1
11944.9
1
11944.9
1
11933.9
1
11933.9
1
11976.3
1
11976.3
1
12005.9
1
12005.9
1
11988.1
1
11988.1
1
11940.7
1
11940.7
1
11965.3
1
11965.3
1
11997.8
1
11997.8
1
11992.9
1
11992.9
1
11957.9
1
11957.9
1
11915.9
1
11915.9
1
11966.1
1
11966.1
1
11907.1
1
11907.1
1
11841.4
1
11841.4
1
11944.9
1
11944.9
1
11968.4
1
11968.4
1
11900.5
1
11900.5
1
11870.4
1
11870.4
1
11880.2
1
11880.2
1
11928.3
1
11928.3
1
11905.7
1
11905.7
1
11857.1
1
11857.1
1
11885.3
1
11885.3
1
11845
1
11845
1
11913.2
1
11913.2
1
11904.1
1
11904.1
1
11888.2
1
11888.2
1
11882.5
1
11882.5
1
11960.9
1
11960.9
1
11874.5
1
11874.5
1
11856.5
1
11856.5
1
11860.5
1
11860.5
1
11903.1
1
11903.1
1
11913.6
1
11913.6
1
11934
1
11934
1
12016.2
1
12016.2
1
11940
1
11940
1
11913.7
1
11913.7
1
11891.4
1
11891.4
1
11927
1
11927
1
11913.3
1
11913.3
1
11863.6
1
11863.6
1
11969.2
1
11969.2
1
11890.5
1
11890.5
1
11971.6
1
11971.6
1
11997.7
1
11997.7
1
11955.5
1
11955.5
1
11940.4
1
11940.4
1
11912
1
11912
1
11987.1
1
11987.1
1
11966
1
11966
1
12016.2
1
12016.2
1
12079.8
1
12079.8
1
12085.3
1
12085.3
1
12081.2
1
12081.2
1
12087.5
1
12087.5
1
12084.1
1
12084.1
1
12145.4
1
12145.4
1
12179.9
1
12179.9
1
12090.8
1
12090.8
1
12229.3
1
12229.3
1
12210.9
1
12210.9
1
12157.2
1
12157.2
1
12192.2
1
12192.2
1
12187.4
1
12187.4
1
12207.4
1
12207.4
1
12235.1
1
12235.1
1
12174.3
1
12174.3
1
12275.3
1
12275.3
1
12329.7
1
12329.7
1
12262.2
1
12262.2
1
12315.4
1
12315.4
1
12348.7
1
12348.7
1
12330.9
1
12330.9
1
12328.6
1
12328.6
1
12369.7
1
12369.7
1
12368.2
1
12368.2
1
12330.2
1
12330.2
1
12376.2
1
12376.2
1
12372.5
1
12372.5
1
12369.3
1
12369.3
1
12361.3
1
12361.3
1
12442.1
1
12442.1
1
12466.4
1
12466.4
1
12486.8
1
12486.8
1
12449.2
1
12449.2
1
12485.2
1
12485.2
1
12478.1
1
12478.1
1
12570.9
1
12570.9
1
12577.7
1
12577.7
1
12532.4
1
12532.4
1
12581.9
1
12581.9
1
12561.2
1
12561.2
1
12682.4
1
12682.4
1
12669.7
1
12669.7
1
12551.3
1
12551.3
1
12555.3
1
12555.3
1
12623.7
1
12623.7
1
12643
1
12643
1
12629.5
1
12629.5
1
12669.5
1
12669.5
1
12749.3
1
12749.3
1
12712.9
1
12712.9
1
12722.1
1
12722.1
1
12721.6
1
12721.6
1
12831
1
12831
1
12789.4
1
12789.4
1
12807
1
12807
1
12783.4
1
12783.4
1
12823.2
1
12823.2
1
12840.7
1
12840.7
1
12869.8
1
12869.8
1
12833.6
1
12833.6
1
12881.8
1
12881.8
1
12884.1
1
12884.1
1
12889.8
1
12889.8
1
12886.2
1
12886.2
1
12904.8
1
12904.8
1
12963.2
1
12963.2
1
12955.7
1
12955.7
1
12980.9
1
12980.9
1
13022.1
1
13022.1
1
12973.6
1
12973.6
1
12955.3
1
12955.3
1
12985.6
1
12985.6
1
13036.6
1
13036.6
1
13031.7
1
13031.7
1
13120.6
1
13120.6
1
13118.5
1
13118.5
1
13066.7
1
13066.7
1
13058.3
1
13058.3
1
13099.4
1
13099.4
1
13114.1
1
13114.1
1
13157
1
13157
1
13081.4
1
13081.4
1
13161.4
1
13161.4
1
13246.8
1
13246.8
1
13171.9
1
13171.9
1
13220
1
13220
1
13298.9
1
13298.9
1
13365.3
1
13365.3
1
13261.3
1
13261.3
1
13285.8
1
13285.8
1
13343
1
13343
1
13451.1
1
13451.1
1
13376.3
1
13376.3
1
13374.1
1
13374.1
1
13342.1
1
13342.1
1
13363.1
1
13363.1
1
13457.4
1
13457.4
1
13414.5
1
13414.5
1
13500.8
1
13500.8
1
13514.9
1
13514.9
1
13494
1
13494
1
13484.1
1
13484.1
1
13544.3
1
13544.3
1
13599.5
1
13599.5
1
13554.1
1
13554.1
1
13582.6
1
13582.6
1
13645.5
1
13645.5
1
13643.1
1
13643.1
1
13643.9
1
13643.9
1
13598.2
1
13598.2
1
13593.4
1
13593.4
1
13690.9
1
13690.9
1
13757.8
1
13757.8
1
13730.7
1
13730.7
1
13722.4
1
13722.4
1
13758.3
1
13758.3
1
13724.8
1
13724.8
1
13746.3
1
13746.3
1
13765.4
1
13765.4
1
13858.8
1
13858.8
1
13856.3
1
13856.3
1
13861
1
13861
1
13888.8
1
13888.8
1
13883.4
1
13883.4
1
13904.5
1
13904.5
1
13903.4
1
13903.4
1
13937.1
1
13937.1
1
13931.5
1
13931.5
1
13919.1
1
13919.1
1
13995.9
1
13995.9
1
14023.3
1
14023.3
1
14009.5
1
14009.5
1
14051.5
1
14051.5
1
14015.5
1
14015.5
1
14010.6
1
14010.6
1
14056.5
1
14056.5
1
14110.1
1
14110.1
1
14127.2
1
14127.2
1
14224.8
1
14224.8
1
14183.7
1
14183.7
1
14118.6
1
14118.6
1
14138.7
1
14138.7
1
14116.8
1
14116.8
1
14122.7
1
14122.7
1
14163.8
1
14163.8
1
14153.3
1
14153.3
1
14205
1
14205
1
14191.3
1
14191.3
1
14139.3
1
14139.3
1
14226.6
1
14226.6
1
14222.1
1
14222.1
1
14255.6
1
14255.6
1
14287.2
1
14287.2
1
14216.3
1
14216.3
1
14220.3
1
14220.3
1
14251.5
1
14251.5
1
14342.3
1
14342.3
1
14238.6
1
14238.6
1
14232.4
1
14232.4
1
14284.1
1
14284.1
1
14261.5
1
14261.5
1
14263.1
1
14263.1
1
14286.9
1
14286.9
1
14410.9
1
14410.9
1
14336.5
1
14336.5
1
14308.4
1
14308.4
1
14278.5
1
14278.5
1
14290.3
1
14290.3
1
14358.6
1
14358.6
1
14367.1
1
14367.1
1
14307.7
1
14307.7
1
14341
1
14341
1
14340.8
1
14340.8
1
14298.4
1
14298.4
1
14295.7
1
14295.7
1
14341.3
1
14341.3
1
14339.9
1
14339.9
1
14328.5
1
14328.5
1
14291.4
1
14291.4
1
14387.7
1
14387.7
1
14340.5
1
14340.5
1
14392.1
1
14392.1
1
14365.6
1
14365.6
1
14417.5
1
14417.5
1
14375
1
14375
1
14390.5
1
14390.5
1
14392.8
1
14392.8
1
14391
1
14391
1
14394.7
1
14394.7
1
14525.7
1
14525.7
1
14404.5
1
14404.5
1
14402.3
1
14402.3
1
14401.1
1
14401.1
1
14489.6
1
14489.6
1
14508.8
1
14508.8
1
14494.2
1
14494.2
1
14530.4
1
14530.4
1
14571.7
1
14571.7
1
14555.1
1
14555.1
1
14575.7
1
14575.7
1
14553.9
1
14553.9
1
14591.9
1
14591.9
1
14691
1
14691
1
14641.2
1
14641.2
1
14651.8
1
14651.8
1
14647.3
1
14647.3
1
14691
1
14691
1
14664.7
1
14664.7
1
14790.2
1
14790.2
1
14785.9
1
14785.9
1
14810.4
1
14810.4
1
14747.7
1
14747.7
1
14790.2
1
14790.2
1
14771.2
1
14771.2
1
14769.4
1
14769.4
1
14837.7
1
14837.7
1
14795.9
1
14795.9
1
14871.9
1
14871.9
1
14834.7
1
14834.7
1
14852.9
1
14852.9
1
14902
1
14902
1
14926.4
1
14926.4
1
14982
1
14982
1
14951.9
1
14951.9
1
14956.3
1
14956.3
1
14923.9
1
14923.9
1
14982.5
1
14982.5
1
15099.7
1
15099.7
1
15109.6
1
15109.6
1
15048.8
1
15048.8
1
15050.9
1
15050.9
1
15141.5
1
15141.5
1
15176.6
1
15176.6
1
15142.5
1
15142.5
1
15091.2
1
15091.2
1
15088.5
1
15088.5
1
15200.5
1
15200.5
1
15189.1
1
15189.1
1
15220.7
1
15220.7
1
15267.5
1
15267.5
1
15259.5
1
15259.5
1
15273.7
1
15273.7
1
15289.6
1
15289.6
1
15352.2
1
15352.2
1
15374.4
1
15374.4
1
15369.6
1
15369.6
1
15374.1
1
15374.1
1
15423
1
15423
1
15427.3
1
15427.3
1
15402.5
1
15402.5
1
15442.1
1
15442.1
1
15432
1
15432
1
15488.2
1
15488.2
1
15608
1
15608
1
15620.6
1
15620.6
1
15511.1
1
15511.1
1
15510.9
1
15510.9
1
15593.5
1
15593.5
1
15554.8
1
15554.8
1
15629.4
1
15629.4
1
15696.5
1
15696.5
1
15665.1
1
15665.1
1
15586
1
15586
1
15712.3
1
15712.3
1
15745.4
1
15745.4
1
15727.9
1
15727.9
1
15736.3
1
15736.3
1
15738.1
1
15738.1
1
15748.6
1
15748.6
1
15742
1
15742
1
15835.5
1
15835.5
1
15759.9
1
15759.9
1
15739.8
1
15739.8
1
15797.4
1
15797.4
1
15761.5
1
15761.5
1
15784.1
1
15784.1
1
15814
1
15814
1
15766.8
1
15766.8
1
15819.2
1
15819.2
1
15749.8
1
15749.8
1
15749.9
1
15749.9
1
15738.3
1
15738.3
1
15803.9
1
15803.9
1
15849.2
1
15849.2
1
15875.8
1
15875.8
1
15772.8
1
15772.8
1
15840.8
1
15840.8
1
15844.5
1
15844.5
1
15851.3
1
15851.3
1
15824.1
1
15824.1
1
15803.6
1
15803.6
1
15895.5
1
15895.5
1
15841.1
1
15841.1
1
15903.1
1
15903.1
1
15785.5
1
15785.5
1
15848.7
1
15848.7
1
15795.7
1
15795.7
1
15792.9
1
15792.9
1
15839.6
1
15839.6
1
15815.6
1
15815.6
1
15830.3
1
15830.3
1
15806.7
1
15806.7
1
15845.4
1
15845.4
1
15883.8
1
15883.8
1
15925.7
1
15925.7
1
15917.7
1
15917.7
1
15796.8
1
15796.8
1
15877.1
1
15877.1
1
15936.3
1
15936.3
1
15972.4
1
15972.4
1
16010.6
1
16010.6
1
15994.1
1
15994.1
1
15956.9
1
15956.9
1
15929.7
1
15929.7
1
15980.9
1
15980.9
1
16003.5
1
16003.5
1
16000
1
16000
1
15971.6
1
15971.6
1
16102.9
1
16102.9
1
16000.8
1
16000.8
1
16005.9
1
16005.9
1
16112.7
1
16112.7
1
16047.6
1
16047.6
1
16116.5
1
16116.5
1
16168.7
1
16168.7
1
16135.1
1
16135.1
1
16157.3
1
16157.3
1
16287.8
1
16287.8
1
16271.4
1
16271.4
1
16286
1
16286
1
16211.9
1
16211.9
1
16270.3
1
16270.3
1
16308.5
1
16308.5
1
16288.3
1
16288.3
1
16306.6
1
16306.6
1
16357.8
1
16357.8
1
16382.4
1
16382.4
1
16412.7
1
16412.7
1
16509.5
1
16509.5
1
16472.5
1
16472.5
1
16511.3
1
16511.3
1
16553.7
1
16553.7
1
16562.9
1
16562.9
1
16621.3
1
16621.3
1
16619.8
1
16619.8
1
16710.2
1
16710.2
1
16866.2
1
16866.2
1
16878.3
1
16878.3
1
17019
1
17019
1
17142.9
1
17142.9
1
17231.1
1
17231.1
1
17238.3
1
17238.3
1
17355.8
1
17355.8
1
17457.4
1
17457.4
1
17630.9
1
17630.9
1
17780
1
17780
1
17913.2
1
17913.2
1
18036.8
1
18036.8
1
18242.2
1
18242.2
1
18433.7
1
18433.7
1
18637.2
1
18637.2
1
18770.9
1
18770.9
1
19053
1
19053
1
19201.4
1
19201.4
1
19437.2
1
19437.2
1
19784.7
1
19784.7
1
20069.7
1
20069.7
1
20510
1
20510
1
20713.3
1
20713.3
1
20983.4
1
20983.4
1
21555.6
1
21555.6
1
22001.5
1
22001.5
1
22539.1
1
22539.1
1
22993.2
1
22993.2
1
23476.6
1
23476.6
1
24143.9
1
24143.9
1
24840.7
1
24840.7
1
25616.5
1
25616.5
1
26517.4
1
26517.4
1
27151.7
1
27151.7
1
28015.1
1
28015.1
1
28868
1
28868
1
29549.9
1
29549.9
1
30018.5
1
30018.5
1
30291.3
1
30291.3
1
30164.6
1
30164.6
1
29883.9
1
29883.9
1
29173.8
1
29173.8
1
28304.4
1
28304.4
1
26975.3
1
26975.3
1
25545.5
1
25545.5
1
23803.8
1
23803.8
1
22107
1
22107
1
20545.8
1
20545.8
1
19139.4
1
19139.4
1
17966.5
1
17966.5
1
17034.7
1
17034.7
1
16234.7
1
16234.7
1
15530.2
1
15530.2
1
14947.2
1
14947.2
1
14480.4
1
14480.4
1
14163.3
1
14163.3
1
13870.1
1
13870.1
1
13490.6
1
13490.6
1
13349.6
1
13349.6
1
13180.3
1
13180.3
1
12969.9
1
12969.9
1
12835.2
1
12835.2
1
12681.5
1
12681.5
1
12645.3
1
12645.3
1
12563.7
1
12563.7
1
12476.7
1
12476.7
1
12419.9
1
12419.9
1
12311.4
1
12311.4
1
12272
1
12272
1
12252.5
1
12252.5
1
12188.4
1
12188.4
1
12203.9
1
12203.9
1
12180.2
1
12180.2
1
12143.4
1
12143.4
1
12116.8
1
12116.8
1
12178.1
1
12178.1
1
12195.2
1
12195.2
1
12154.2
1
12154.2
1
12190.8
1
12190.8
1
12187.2
1
12187.2
1
12237.1
1
12237.1
1
12235.5
1
12235.5
1
12286
1
12286
1
12248.3
1
12248.3
1
12237.4
1
12237.4
1
12303.7
1
12303.7
1
12298.1
1
12298.1
1
12431.2
1
12431.2
1
12442
1
12442
1
12523.5
1
12523.5
1
12530
1
12530
1
12543.5
1
12543.5
1
12558.9
1
12558.9
1
12606.9
1
12606.9
1
12652.3
1
12652.3
1
12733.4
1
12733.4
1
12687.6
1
12687.6
1
12775.1
1
12775.1
1
12834.2
1
12834.2
1
12862
1
12862
1
12943.2
1
12943.2
1
13010.9
1
13010.9
1
13035.7
1
13035.7
1
13024.9
1
13024.9
1
13035.2
1
13035.2
1
13176.4
1
13176.4
1
13161.4
1
13161.4
1
13193.6
1
13193.6
1
13231.7
1
13231.7
1
13285
1
13285
1
13297.6
1
13297.6
1
13236
1
13236
1
13361.4
1
13361.4
1
13423.4
1
13423.4
1
13532
1
13532
1
13596.2
1
13596.2
1
13565.2
1
13565.2
1
13626.2
1
13626.2
1
13810.8
1
13810.8
1
13901.9
1
13901.9
1
13921
1
13921
1
14006.7
1
14006.7
1
14171.8
1
14171.8
1
14245.1
1
14245.1
1
14340.1
1
14340.1
1
14473.8
1
14473.8
1
14619.5
1
14619.5
1
14812.5
1
14812.5
1
14923.2
1
14923.2
1
15012.9
1
15012.9
1
15236.8
1
15236.8
1
15355.2
1
15355.2
1
15448.4
1
15448.4
1
15542.4
1
15542.4
1
15766.2
1
15766.2
1
15838.5
1
15838.5
1
16062.9
1
16062.9
1
16194.4
1
16194.4
1
16367.9
1
16367.9
1
16589.5
1
16589.5
1
16706.1
1
16706.1
1
16910.8
1
16910.8
1
17167.8
1
17167.8
1
17420.5
1
17420.5
1
17588.4
1
17588.4
1
17926.4
1
17926.4
1
18370.2
1
18370.2
1
18677.4
1
18677.4
1
19020.6
1
19020.6
1
19522.2
1
19522.2
1
20095.6
1
20095.6
1
20650.1
1
20650.1
1
21272.7
1
21272.7
1
22051
1
22051
1
23087.3
1
23087.3
1
24161.1
1
24161.1
1
25331.1
1
25331.1
1
26691.7
1
26691.7
1
28571.6
1
28571.6
1
30392
1
30392
1
32342.4
1
32342.4
1
34439.7
1
34439.7
1
36369.3
1
36369.3
1
38133.7
1
38133.7
1
39760.3
1
39760.3
1
41630.3
1
41630.3
1
44078.3
1
44078.3
1
46923.7
1
46923.7
1
50218
1
50218
1
53209.3
1
53209.3
1
54850.3
1
54850.3
1
54130
1
54130
1
50248
1
50248
1
43614
1
43614
1
35167
1
35167
1
26720.5
1
26720.5
1
19516.7
1
19516.7
1
14244.4
1
14244.4
1
10658
1
10658
1
8352.37
1
8352.37
1
6853.27
1
6853.27
1
5783.2
1
5783.2
1
5015.8
1
5015.8
1
4427.13
1
4427.13
1
4015.73
1
4015.73
1
3682.03
1
3682.03
1
3439.77
1
3439.77
1
3221.87
1
3221.87
1
3029.64
1
3029.64
1
2864.95
1
2864.95
1
2695.26
1
2695.26
1
2541.73
1
2541.73
1
2435.33
1
2435.33
1
2375.57
1
2375.57
1
2308.28
1
2308.28
1
2216.3
1
2216.3
1
2158.98
1
2158.98
1
2074.82
1
2074.82
1
2022.23
1
2022.23
1
1995.26
1
1995.26
1
1950.51
1
1950.51
1
1896.4
1
1896.4
1
1834.49
1
1834.49
1
1782.96
1
1782.96
1
1774.07
1
1774.07
1
1732.45
1
1732.45
1
1703.07
1
1703.07
1
1713.04
1
1713.04
1
1655.59
1
1655.59
1
1656.2
1
1656.2
1
1633.67
1
1633.67
1
1603.03
1
1603.03
1
1603.28
1
1603.28
1
1578.75
1
1578.75
1
1570.63
1
1570.63
1
1547.14
1
1547.14
1
1516.6
1
1516.6
1
1508.97
1
1508.97
1
1495.77
1
1495.77
1
1474.47
1
1474.47
1
1463.28
1
1463.28
1
1446.33
1
1446.33
1
1456.02
1
1456.02
1
1425.11
1
1425.11
1
1394.57
1
1394.57
1
1405.32
1
1405.32
1
1385.34
1
1385.34
1
1396.94
1
1396.94
1
1398.83
1
1398.83
1
1394.03
1
1394.03
1
1381.98
1
1381.98
1
1369.71
1
1369.71
1
1353.73
1
1353.73
1
1336.59
1
1336.59
1
1331.06
1
1331.06
1
1352.02
1
1352.02
1
1330.41
1
1330.41
1
1317.97
1
1317.97
1
1302.59
1
1302.59
1
1291.27
1
1291.27
1
1311.94
1
1311.94
1
1310.15
1
1310.15
1
1293.15
1
1293.15
1
1288.66
1
1288.66
1
1285.82
1
1285.82
1
1305.35
1
1305.35
1
1297.25
1
1297.25
1
1276.42
1
1276.42
1
1273.18
1
1273.18
1
1268.84
1
1268.84
1
1281.22
1
1281.22
1
1284.92
1
1284.92
1
1288.28
1
1288.28
1
1285.65
1
1285.65
1
1257.09
1
1257.09
1
1279
1
1279
1
1256.56
1
1256.56
1
1257.67
1
1257.67
1
1258.8
1
1258.8
1
1255.66
1
1255.66
1
1243
1
1243
1
1256.27
1
1256.27
1
1214.68
1
1214.68
1
1234.7
1
1234.7
1
1222.11
1
1222.11
1
1231.71
1
1231.71
1
1229.63
1
1229.63
1
1231.92
1
1231.92
1
1227.11
1
1227.11
1
1227.29
1
1227.29
1
1240.52
1
1240.52
1
1224.91
1
1224.91
1
1204.78
1
1204.78
1
1211.73
1
1211.73
1
1225.4
1
1225.4
1
1215.39
1
1215.39
1
1208.48
1
1208.48
1
1223.11
1
1223.11
1
1226.52
1
1226.52
1
1206.47
1
1206.47
1
1191.26
1
1191.26
1
1208.39
1
1208.39
1
1214.39
1
1214.39
1
1208.92
1
1208.92
1
1204.79
1
1204.79
1
1201.14
1
1201.14
1
1203.93
1
1203.93
1
1190.55
1
1190.55
1
1190.69
1
1190.69
1
1189.67
1
1189.67
1
1184.72
1
1184.72
1
1200.23
1
1200.23
1
1176.26
1
1176.26
1
1155.05
1
1155.05
1
1182.92
1
1182.92
1
1190.33
1
1190.33
1
1164.77
1
1164.77
1
1152.57
1
1152.57
1
1158.14
1
1158.14
1
1195.59
1
1195.59
1
1189.21
1
1189.21
1
1172.16
1
1172.16
1
1162.95
1
1162.95
1
1144.88
1
1144.88
1
1137.25
1
1137.25
1
1169.35
1
1169.35
1
1159.5
1
1159.5
1
1167.68
1
1167.68
1
1148.89
1
1148.89
1
1154.63
1
1154.63
1
1157.36
1
1157.36
1
1181.12
1
1181.12
1
1154.61
1
1154.61
1
1161.23
1
1161.23
1
1160.2
1
1160.2
1
1163.84
1
1163.84
1
1157.86
1
1157.86
1
1149.26
1
1149.26
1
1163.66
1
1163.66
1
1179.74
1
1179.74
1
1149.84
1
1149.84
1
1164.1
1
1164.1
1
1140.86
1
1140.86
1
1148.38
1
1148.38
1
1153.72
1
1153.72
1
1164.32
1
1164.32
1
1159.29
1
1159.29
1
1162.65
1
1162.65
1
1177.38
1
1177.38
1
1147.3
1
1147.3
1
1135.94
1
1135.94
1
1164.28
1
1164.28
1
1185.31
1
1185.31
1
1154.3
1
1154.3
1
1136.98
1
1136.98
1
1151.42
1
1151.42
1
1172.18
1
1172.18
1
1167.89
1
1167.89
1
1178.4
1
1178.4
1
1171.79
1
1171.79
1
1172.07
1
1172.07
1
1134.46
1
1134.46
1
1168.3
1
1168.3
1
1170.57
1
1170.57
1
1207.68
1
1207.68
1
1201.96
1
1201.96
1
1184.18
1
1184.18
1
1212.92
1
1212.92
1
1214.79
1
1214.79
1
1168.92
1
1168.92
1
1186.79
1
1186.79
1
1195.58
1
1195.58
1
1163.39
1
1163.39
1
1151.71
1
1151.71
1
1184.55
1
1184.55
1
1173.68
1
1173.68
1
1193.15
1
1193.15
1
1177.95
1
1177.95
1
1184.08
1
1184.08
1
1162.17
1
1162.17
1
1165.25
1
1165.25
1
1155.1
1
1155.1
1
1148.32
1
1148.32
1
1140.5
1
1140.5
1
1160.52
1
1160.52
1
1155.09
1
1155.09
1
1165.48
1
1165.48
1
1166.73
1
1166.73
1
1147.23
1
1147.23
1
1149.19
1
1149.19
1
1172.11
1
1172.11
1
1150.9
1
1150.9
1
1157.73
1
1157.73
1
1156.98
1
1156.98
1
1160.05
1
1160.05
1
1168.93
1
1168.93
1
1148.02
1
1148.02
1
1163.64
1
1163.64
1
1168.26
1
1168.26
1
1172.23
1
1172.23
1
1167.16
1
1167.16
1
1169.02
1
1169.02
1
1156.19
1
1156.19
1
1174.5
1
1174.5
1
1157.26
1
1157.26
1
1160.81
1
1160.81
1
1162.4
1
1162.4
1
1183.51
1
Fe2p
FeO
2012
2021
5
9
41
29
0
11
Casa Info Follows
0
0
0
0
none
Group: none
Analyzer Lens: none
Analyzer Slit: none
Scan Mode: none
C:\Users\pielsticker\Downloads\utils\test fits\new\Fe2p_FeO_new.vms
XPS
0
Al
1486.61
0
0
0
56.5
180
FAT
20
1
4.1408
0
0
0
0
0
Fe
2p
-1
kinetic energy
eV
716.61
0.05
2
counts
d
Transmission
d
pulse counting
0.1
3
0
0
0
0
2
ESCAPE DEPTH TYPE
d
0
MFP Exponent
d
0
3402
1124.42
11907.6
1
1
5360.6
1
5360.6
1
5367.87
1
5367.87
1
5330.4
1
5330.4
1
5348
1
5348
1
5334.23
1
5334.23
1
5323.53
1
5323.53
1
5309.4
1
5309.4
1
5300.6
1
5300.6
1
5305.97
1
5305.97
1
5319.83
1
5319.83
1
5303.67
1
5303.67
1
5283.77
1
5283.77
1
5238.47
1
5238.47
1
5256.4
1
5256.4
1
5254.4
1
5254.4
1
5225.97
1
5225.97
1
5268.67
1
5268.67
1
5240.47
1
5240.47
1
5199.93
1
5199.93
1
5203.83
1
5203.83
1
5203.63
1
5203.63
1
5144.73
1
5144.73
1
5081.77
1
5081.77
1
5145.3
1
5145.3
1
5119.27
1
5119.27
1
5138.53
1
5138.53
1
5118.13
1
5118.13
1
5138.93
1
5138.93
1
5107.23
1
5107.23
1
5073.87
1
5073.87
1
5046.5
1
5046.5
1
5048.03
1
5048.03
1
5057.27
1
5057.27
1
5039.07
1
5039.07
1
5022.73
1
5022.73
1
5001.53
1
5001.53
1
4982.77
1
4982.77
1
5003.97
1
5003.97
1
5005.83
1
5005.83
1
5002.4
1
5002.4
1
4997.13
1
4997.13
1
4937.77
1
4937.77
1
4934.43
1
4934.43
1
4957.53
1
4957.53
1
4962.8
1
4962.8
1
4954.97
1
4954.97
1
4883.67
1
4883.67
1
4914.87
1
4914.87
1
4923.9
1
4923.9
1
4919.17
1
4919.17
1
4909.13
1
4909.13
1
4924.2
1
4924.2
1
4917.47
1
4917.47
1
4906.37
1
4906.37
1
4903.87
1
4903.87
1
4904.37
1
4904.37
1
4914.57
1
4914.57
1
4895.57
1
4895.57
1
4902.83
1
4902.83
1
4881.17
1
4881.17
1
4865
1
4865
1
4899.1
1
4899.1
1
4893.23
1
4893.23
1
4911.53
1
4911.53
1
4901.4
1
4901.4
1
4922.23
1
4922.23
1
4898.23
1
4898.23
1
4860.7
1
4860.7
1
4919.73
1
4919.73
1
4895.07
1
4895.07
1
4885.37
1
4885.37
1
4874.03
1
4874.03
1
4905.3
1
4905.3
1
4901.37
1
4901.37
1
4873.13
1
4873.13
1
4850.6
1
4850.6
1
4908.87
1
4908.87
1
4882.83
1
4882.83
1
4922.7
1
4922.7
1
4906.07
1
4906.07
1
4901.1
1
4901.1
1
4899.87
1
4899.87
1
4938.87
1
4938.87
1
4857.3
1
4857.3
1
4896.13
1
4896.13
1
4896.7
1
4896.7
1
4847.47
1
4847.47
1
4886.63
1
4886.63
1
4925.73
1
4925.73
1
4949.2
1
4949.2
1
4937.33
1
4937.33
1
4975.8
1
4975.8
1
4925.87
1
4925.87
1
4926.2
1
4926.2
1
4956.67
1
4956.67
1
4964.67
1
4964.67
1
4920.73
1
4920.73
1
4875.07
1
4875.07
1
4919.27
1
4919.27
1
4966.13
1
4966.13
1
4972.57
1
4972.57
1
4946.57
1
4946.57
1
4978.6
1
4978.6
1
4944.23
1
4944.23
1
4962.83
1
4962.83
1
4984.9
1
4984.9
1
4917.87
1
4917.87
1
4966.8
1
4966.8
1
4971.3
1
