VAMAS Surface Chemical Analysis Standard Data Transfer Format 1988 May 4
Not Specified
Not Specified
Not Specified
Not Specified
12
Casa Info Follows CasaXPS Version 2.3.23rev1.0Y
0
Created by SpecsLab Prodigy, Version 4.55.1-r82379 
SourceAnalyserAngle: 56.500000 d
CasaRowLabel:Ti metal lineshape
CasaRowLabel:TiO lineshape
CasaRowLabel:Ti2O3 lineshape
CasaRowLabel:TiO2 lineshape
CasaRowLabel:Ti metal fit
CasaRowLabel:TiO fit
CasaRowLabel:Ti2O3 fit
CasaRowLabel:TiO2 fit
NORM
IRREGULAR
1
1
Exp Variable
d
0
0
0
0
8
&Ti_met
Ti metal lineshape
0
0
0
0
0
0
0
10
Casa Info Follows
0
0
0
0

PCA Coefs = 54487.5, 23477.3, -4356.52, 108.165, 
PCA Coefs = 54487.5, 23477.3, -4356.52, 108.165, -1011.67, 
c:\users\mark\owncloud\muelheim group\projects\tio2\analyzed data\experiment 2019-03-28_ti sheet_cec-1303 - vector analysis.vms
C:\Users\pielsticker\Downloads\Ti\EX209_CEC303 Ti slow oxidation - vectro fit - irregular.vms
XPS
1e+037
Al
1486.61
1e+037
1e+037
1e+037
1e+037
1e+037
FAT
1e+037
1e+037
1e+037
1e+037
1e+037
1e+037
1e+037
1e+037
Ti
2p
-1
3
Kinetic Energy
eV
Intensity
d
transmission
d
pulse counting
1
1
1e+037
1e+037
1e+037
1e+037
3
MFP Exponent
d
0
ESCAPE DEPTH TYPE
d
1
PROPAGATION_CONVERGED
d
1
2406
0
1
0
1
0
1
986.61
1380.79
1
986.71
1379.61
1
986.81
1342.46
1
986.91
1357.98
1
987.01
1384.78
1
987.11
1338.23
1
987.21
1302.73
1
987.31
1369.8
1
987.41
1340.63
1
987.51
1326.81
1
987.61
1308.49
1
987.71
1297.46
1
987.81
1366.09
1
987.91
1417.54
1
988.01
1429.56
1
988.11
1338.43
1
988.21
1307.35
1
988.31
1331.1
1
988.41
1342.77
1
988.51
1352.87
1
988.61
1334.16
1
988.71
1322.33
1
988.81
1336.04
1
988.91
1337.25
1
989.01
1291.69
1
989.11
1331.42
1
989.21
1362.36
1
989.31
1367.73
1
989.41
1321.77
1
989.51
1331.19
1
989.61
1337.59
1
989.71
1354.37
1
989.81
1337.41
1
989.91
1414.58
1
990.01
1375.48
1
990.11
1329.94
1
990.21
1340.48
1
990.31
1299.66
1
990.41
1329.48
1
990.51
1336.35
1
990.61
1374.2
1
990.71
1329.05
1
990.81
1364.6
1
990.91
1275.77
1
991.01
1403.71
1
991.11
1391.23
1
991.21
1385.94
1
991.31
1408.94
1
991.41
1378.4
1
991.51
1311.37
1
991.61
1388.73
1
991.71
1357.91
1
991.81
1398.56
1
991.91
1318.21
1
992.01
1324.53
1
992.11
1390.02
1
992.21
1299.01
1
992.31
1376.27
1
992.41
1368.45
1
992.51
1384.67
1
992.61
1327.26
1
992.71
1345.15
1
992.81
1363.08
1
992.91
1365.75
1
993.01
1307.44
1
993.11
1363.56
1
993.21
1293.28
1
993.31
1339.81
1
993.41
1331.02
1
993.51
1325.31
1
993.61
1339.19
1
993.71
1382.03
1
993.81
1270.13
1
993.91
1311.58
1
994.01
1363.6
1
994.11
1378.17
1
994.21
1289.73
1
994.31
1438.27
1
994.41
1295.38
1
994.51
1371.09
1
994.61
1381.04
1
994.71
1391.69
1
994.81
1354.23
1
994.91
1386.57
1
995.01
1303.35
1
995.11
1321.43
1
995.21
1369.64
1
995.31
1438.72
1
995.41
1409.51
1
995.51
1401.62
1
995.61
1421.9
1
995.71
1412.13
1
995.81
1429.47
1
995.91
1360.03
1
996.01
1401.67
1
996.11
1377.03
1
996.21
1353.26
1
996.31
1442.57
1
996.41
1318.8
1
996.51
1292.64
1
996.61
1475.21
1
996.71
1394.63
1
996.81
1382.38
1
996.91
1497.62
1
997.01
1445.13
1
997.11
1444.74
1
997.21
1423.46
1
997.31
1449.53
1
997.41
1437.41
1
997.51
1436.63
1
997.61
1459.79
1
997.71
1452.47
1
997.81
1374.02
1
997.91
1365.02
1
998.01
1425.56
1
998.11
1477.99
1
998.21
1395.59
1
998.31
1349.93
1
998.41
1406.85
1
998.51
1442.93
1
998.61
1426.26
1
998.71
1425.03
1
998.81
1448.98
1
998.91
1417.89
1
999.01
1363.7
1
999.11
1357.04
1
999.21
1372.19
1
999.31
1451.86
1
999.41
1440.96
1
999.51
1447.06
1
999.61
1472.97
1
999.71
1420.74
1
999.81
1469.9
1
999.91
1469.79
1
1000.01
1410.93
1
1000.11
1469.51
1
1000.21
1427.66
1
1000.31
1474.49
1
1000.41
1484.39
1
1000.51
1499.16
1
1000.61
1439.94
1
1000.71
1501.69
1
1000.81
1473.67
1
1000.91
1424.29
1
1001.01
1510.63
1
1001.11
1439.25
1
1001.21
1504.56
1
1001.31
1449.63
1
1001.41
1499.57
1
1001.51
1516.59
1
1001.61
1470.99
1
1001.71
1446.03
1
1001.81
1491.14
1
1001.91
1482.6
1
1002.01
1458.25
1
1002.11
1464.51
1
1002.21
1528.15
1
1002.31
1599.73
1
1002.41
1519.57
1
1002.51
1464.08
1
1002.61
1500.98
1
1002.71
1491.64
1
1002.81
1506.13
1
1002.91
1493.78
1
1003.01
1490.32
1
1003.11
1562.09
1
1003.21
1609.35
1
1003.31
1533.6
1
1003.41
1496.24
1
1003.51
1515.64
1
1003.61
1520.53
1
1003.71
1584.04
1
1003.81
1479.16
1
1003.91
1498.88
1
1004.01
1597.33
1
1004.11
1576.33
1
1004.21
1609.96
1
1004.31
1589.92
1
1004.41
1588.85
1
1004.51
1571.07
1
1004.61
1564.75
1
1004.71
1641.64
1
1004.81
1614.72
1
1004.91
1545.26
1
1005.01
1584.59
1
1005.11
1642.09
1
1005.21
1624.18
1
1005.31
1587.97
1
1005.41
1664.19
1
1005.51
1622.77
1
1005.61
1631.17
1
1005.71
1685.78
1
1005.81
1639.74
1
1005.91
1667.52
1
1006.01
1660.09
1
1006.11
1692.51
1
1006.21
1740.76
1
1006.31
1741.68
1
1006.41
1670.29
1
1006.51
1597.06
1
1006.61
1699.18
1
1006.71
1670.17
1
1006.81
1693.94
1
1006.91
1620.58
1
1007.01
1651.87
1
1007.11
1653.77
1
1007.21
1699.66
1
1007.31
1772.5
1
1007.41
1760.24
1
1007.51
1777.14
1
1007.61
1729.47
1
1007.71
1707.44
1
1007.81
1685.22
1
1007.91
1823.56
1
1008.01
1773.63
1
1008.11
1798.18
1
1008.21
1658.13
1
1008.31
1712.2
1
1008.41
1712.79
1
1008.51
1786.61
1
1008.61
1802.67
1
1008.71
1800.84
1
1008.81
1845.9
1
1008.91
1794.35
1
1009.01
1683.68
1
1009.11
1746.38
1
1009.21
1813.12
1
1009.31
1744.82
1
1009.41
1813.56
1
1009.51
1879.87
1
1009.61
1808.8
1
1009.71
1876.88
1
1009.81
1852.78
1
1009.91
1811.09
1
1010.01
1835.17
1
1010.11
1720.69
1
1010.21
1870.48
1
1010.31
1845.77
1
1010.41
1890.29
1
1010.51
1887.68
1
1010.61
1915.28
1
1010.71
1897.2
1
1010.81
1843.1
1
1010.91
1882.49
1
1011.01
1923.08
1
1011.11
1869.6
1
1011.21
1931.1
1
1011.31
1872.84
1
1011.41
1856.21
1
1011.51
1754.08
1
1011.61
1854.61
1
1011.71
1836.8
1
1011.81
1858.82
1
1011.91
1916.85
1
1012.01
1958.7
1
1012.11
1946.96
1
1012.21
1843.17
1
1012.31
1901.22
1
1012.41
1979.69
1
1012.51
1873.84
1
1012.61
1820.68
1
1012.71
1919.9
1
1012.81
1879.35
1
1012.91
1933.45
1
1013.01
1916.62
1
1013.11
1825.82
1
1013.21
1825.83
1
1013.31
1934.56
1
1013.41
1951.73
1
1013.51
1848.74
1
1013.61
1941.73
1
1013.71
2018.38
1
1013.81
1930.07
1
1013.91
1920.36
1
1014.01
2013.36
1
1014.11
1984.06
1
1014.21
2007.5
1
1014.31
1948.81
1
1014.41
1946.49
1
1014.51
1951.41
1
1014.61
1930.67
1
1014.71
1969.69
1
1014.81
2028.56
1
1014.91
1991.82
1
1015.01
1942.89
1
1015.11
1909.56
1
1015.21
1915.99
1
1015.31
1955.57
1
1015.41
2015.53
1
1015.51
1852.58
1
1015.61
1963.3
1
1015.61
1933.49
1
1015.66
1941.26
1
1015.71
1965.15
1
1015.71
1877.62
1
1015.76
1971.51
1
1015.81
1973.09
1
1015.81
1768.22
1
1015.86
2021.45
1
1015.91
1933.58
1
1015.91
1947.46
1
1015.96
1956.42
1
1016.01
1980.6
1
1016.01
1869.75
1
1016.06
1855.78
1
1016.11
1938.97
1
1016.11
1872.9
1
1016.16
1999.16
1
1016.21
1972.71
1
1016.21
1929.9
1
1016.26
1973.12
1
1016.31
1848.81
1
1016.31
1885.8
1
1016.36
1938.1
1
1016.41
2018.31
1
1016.41
1808.37
1
1016.46
1981.29
1
1016.51
1823.87
1
1016.51
1951.69
1
1016.56
1940.62
1
1016.61
1889.25
1
1016.61
1812.92
1
1016.66
1904.31
1
1016.71
1895.27
1
1016.76
1935.61
1
1016.81
1942.68
1
1016.86
1929.89
1
1016.91
1882.81
1
1016.96
1902.12
1
1017.01
1901.64
1
1017.06
1902.15
1
1017.11
1889.43
1
1017.16
1937.09
1
1017.21
1926.96
1
1017.26
1910.96
1
1017.31
1844.52
1
1017.36
1896.03
1
1017.41
1863.37
1
1017.46
1931.4
1
1017.51
1887.82
1
1017.56
1865.67
1
1017.61
1912.49
1
1017.66
1895.03
1
1017.71
1966.08
1
1017.76
1927.63
1
1017.81
1876.22
1
1017.86
1850.19
1
1017.91
1906.06
1
1017.96
1938.18
1
1018.01
1950.47
1
1018.06
1817.53
1
1018.11
1766.07
1
1018.16
1759.62
1
1018.21
1838.78
1
1018.26
1838.98
1
1018.31
1809.91
1
1018.36
1803.35
1
1018.41
1828.37
1
1018.46
1830.74
1
1018.51
1836.04
1
1018.56
1808.17
1
1018.61
1865.96
1
1018.66
1815.38
1
1018.71
1796.13
1
1018.76
1857.29
1
1018.81
1805.1
1
1018.86
1890.62
1
1018.91
1837.8
1
1018.96
1821.53
1
1019.01
1816.02
1
1019.06
1822.96
1
1019.11
1846.53
1
1019.16
1843.97
1
1019.21
1816.55
1
1019.26
1844.37
1
1019.31
1751.26
1
1019.36
1801.92
1
1019.41
1833.22
1
1019.46
1792.86
1
1019.51
1794.61
1
1019.56
1781.12
1
1019.61
1772.53
1
1019.66
1779.03
1
1019.71
1816.7
1
1019.76
1731.66
1
1019.81
1753.41
1
1019.86
1744.02
1
1019.91
1781.79
1
1019.96
1769.55
1
1020.01
1744.31
1
1020.06
1728.57
1
1020.11
1709.92
1
1020.16
1750.91
1
1020.21
1729.59
1
1020.26
1691.85
1
1020.31
1661.76
1
1020.36
1641.75
1
1020.41
1691.15
1
1020.46
1696.6
1
1020.51
1641.03
1
1020.56
1664.82
1
1020.61
1685.23
1
1020.66
1734.4
1
1020.71
1743.33
1
1020.76
1725.8
1
1020.81
1641.08
1
1020.86
1659.57
1
1020.91
1642.85
1
1020.96
1653.85
1
1021.01
1642.46
1
1021.06
1596.89
1
1021.11
1655.18
1
1021.16
1631.72
1
1021.21
1677.89
1
1021.26
1615.46
1
1021.31
1575.95
1
1021.36
1635.74
1
1021.41
1637.82
1
1021.46
1621.95
1
1021.51
1624.47
1
1021.56
1602.28
1
1021.61
1617.64
1
1021.66
1661.08
1
1021.71
1601.39
1
1021.76
1597.96
1
1021.81
1634.78
1
1021.86
1515.82
1
1021.91
1529.38
1
1021.96
1589.72
1
1022.01
1631.87
1
1022.06
1600.49
1
1022.11
1609.53
1
1022.16
1621.86
1
1022.21
1618.58
1
1022.26
1588.22
1
1022.31
1611.16
1
1022.36
1538.82
1
1022.41
1555.75
1
1022.46
1623.54
1
1022.51
1596.04
1
1022.56
1598.46
1
1022.61
1625.18
1
1022.66
1625.41
1
1022.71
1559.8
1
1022.76
1590.72
1
1022.81
1603
1
1022.86
1625.45
1
1022.91
1614.94
1
1022.96
1616.31
1
1023.01
1646.62
1
1023.06
1605.99
1
1023.11
1574.2
1
1023.16
1653.07
1
1023.21
1616.84
1
1023.26
1643.5
1
1023.31
1681.81
1
1023.36
1687.59
1
1023.41
1643.74
1
1023.46
1699.56
1
1023.51
1685.63
1
1023.56
1623.89
1
1023.61
1709.65
1
1023.66
1685.35
1
1023.71
1678.15
1
1023.76
1712.26
1
1023.81
1734.06
1
1023.86
1753.33
1
1023.91
1749.23
1
1023.96
1685.39
1
1024.01
1678.21
1
1024.06
1703.71
1
1024.11
1667.25
1
1024.16
1723.33
1
1024.21
1737.96
1
1024.26
1747.16
1
1024.31
1784.91
1
1024.36
1834.63
1
1024.41
1847.48
1
1024.46
1857.75
1
1024.51
1841.84
1
1024.56
1830
1
1024.61
1880.13
1
1024.66
1914.53
1
1024.71
1958.79
1
1024.76
1980.26
1
1024.81
1929.9
1
1024.86
1946.76
1
1024.91
2011.96
1
1024.96
1987.89
1
1025.01
1956.88
1
1025.06
2011.1
1
1025.11
1984.67
1
1025.16
2039.99
1
1025.21
2056.17
1
1025.26
2128.09
1
1025.31
2070.19
1
1025.36
2128.97
1
1025.41
2115.4
1
1025.46
2262.59
1
1025.51
2320.48
1
1025.56
2286.48
1
1025.61
2379.47
1
1025.66
2412.44
1
1025.71
2474.45
1
1025.76
2484.5
1
1025.81
2593.62
1
1025.86
2650.32
1
1025.91
2727.02
1
1025.96
2862.62
1
1026.01
2860.44
1
1026.06
3055.64
1
1026.11
3137.41
1
1026.16
3219.96
1
1026.21
3305.52
1
1026.26
3447.77
1
1026.31
3530.05
1
1026.36
3615.49
1
1026.41
3658.58
1
1026.46
3777.02
1
1026.51
3966.76
1
1026.56
4018.36
1
1026.61
4079.39
1
1026.66
4113.2
1
1026.71
4028.53
1
1026.76
4037.47
1
1026.81
3963.71
1
1026.86
3850.84
1
1026.91
3698.38
1
1026.96
3619.54
1
1027.01
3422.72
1
1027.06
3176.2
1
1027.11
3153.17
1
1027.16
3044.57
1
1027.21
2829.88
1
1027.26
2589.45
1
1027.31
2474.68
1
1027.36
2354.17
1
1027.41
2254.55
1
1027.46
2028.81
1
1027.51
2031.41
1
1027.56
1822.23
1
1027.61
1832.39
1
1027.66
1757.17
1
1027.71
1626.62
1
1027.76
1673.17
1
1027.81
1630.39
1
1027.86
1465.44
1
1027.91
1470.7
1
1027.96
1448.93
1
1028.01
1361.87
1
1028.06
1306.54
1
1028.11
1325.99
1
1028.16
1288.78
1
1028.21
1338
1
1028.26
1353.09
1
1028.31
1321.05
1
1028.36
1320.89
1
1028.41
1233.07
1
1028.46
1219.36
1
1028.51
1236.26
1
1028.56
1258.57
1
1028.61
1202.57
1
1028.66
1213.91
1
1028.71
1188.95
1
1028.76
1237.24
1
1028.81
1213.76
1
1028.86
1175.42
1
1028.91
1218.24
1
1028.96
1226.62
1
1029.01
1264.76
1
1029.06
1243.46
1
1029.11
1216.39
1
1029.16
1275.79
1
1029.21
1290.32
1
1029.26
1184.19
1
1029.31
1207.88
1
1029.36
1225.3
1
1029.41
1256.9
1
1029.46
1249.17
1
1029.51
1235.28
1
1029.56
1277.07
1
1029.61
1330.8
1
1029.66
1323.01
1
1029.71
1324.2
1
1029.76
1344.62
1
1029.81
1308.33
1
1029.86
1333.98
1
1029.91
1324.21
1
1029.96
1308.42
1
1030.01
1352.92
1
1030.06
1376.73
1
1030.11
1373.89
1
1030.16
1427.71
1
1030.21
1426.87
1
1030.26
1481.12
1
1030.31
1499.48
1
1030.36
1465.18
1
1030.41
1526.2
1
1030.46
1531.63
1
1030.51
1530.68
1
1030.56
1558.82
1
1030.61
1578.27
1
1030.66
1606.92
1
1030.71
1658.45
1
1030.76
1627.62
1
1030.81
1707.29
1
1030.86
1783.53
1
1030.91
1789.62
1
1030.96
1818.66
1
1031.01
1794.29
1
1031.06
1841.96
1
1031.11
1842.23
1
1031.16
1919.9
1
1031.21
1996.49
1
1031.26
2097.07
1
1031.31
2098.6
1
1031.36
2159.06
1
1031.41
2191.78
1
1031.46
2365.46
1
1031.51
2365.36
1
1031.56
2361.12
1
1031.61
2539.57
1
1031.66
2612.76
1
1031.71
2578.6
1
1031.76
2815.58
1
1031.81
2917.59
1
1031.86
3025.62
1
1031.91
3160.55
1
1031.96
3234.93
1
1032.01
3381.58
1
1032.06
3530.59
1
1032.11
3778.39
1
1032.16
3966.65
1
1032.21
4160
1
1032.26
4551.55
1
1032.31
4784.78
1
1032.36
5131.12
1
1032.41
5563.98
1
1032.46
5837.79
1
1032.51
6216.12
1
1032.56
6564.46
1
1032.61
6849.11
1
1032.66
7123.46
1
1032.71
7348.28
1
1032.76
7566.48
1
1032.81
7540.43
1
1032.86
7522.43
1
1032.91
7300.02
1
1032.96
7014.46
1
1033.01
6650.6
1
1033.06
6298.39
1
1033.11
5814.3
1
1033.16
5241.1
1
1033.21
4719.32
1
1033.26
4082.49
1
1033.31
3539.61
1
1033.36
2979.52
1
1033.41
2604.1
1
1033.46
2080.86
1
1033.51
1789.26
1
1033.56
1507.07
1
1033.61
1208.84
1
1033.66
1004.87
1
1033.71
840.511
1
1033.76
696.477
1
1033.81
639.592
1
1033.86
534.113
1
1033.91
442.715
1
1033.96
403.622
1
1034.01
325.708
1
1034.06
310.052
1
1034.11
273.502
1
1034.16
251.865
1
1034.21
224.698
1
1034.26
218.158
1
1034.31
189.398
1
1034.36
152.771
1
1034.41
145.057
1
1034.46
158.48
1
1034.51
171.61
1
1034.56
155.34
1
1034.61
126.164
1
1034.66
119.394
1
1034.71
98.7856
1
1034.76
104.416
1
1034.81
102.57
1
1034.86
87.9027
1
1034.91
102.569
1
1034.96
64.2042
1
1035.01
86.0091
1
1035.06
83.7235
1
1035.11
65.2265
1
1035.16
66.9629
1
1035.21
81.7472
1
1035.26
54.5349
1
1035.31
72.9072
1
1035.36
62.729
1
1035.41
54.6963
1
1035.46
52.9836
1
1035.51
51.4427
1
1035.56
66.2454
1
1035.61
27.7958
1
1035.66
22.6612
1
1035.71
47.0201
1
1035.76
48.3473
1
1035.81
31.6776
1
1035.86
42.2973
1
1035.91
39.7689
1
1035.96
43.744
1
1036.01
46.7088
1
1036.06
23.7669
1
1036.11
21.9353
1
1036.16
30.339
1
1036.21
24.5338
1
1036.26
42.0066
1
1036.31
32.2861
1
1036.36
32.8994
1
1036.41
16.5913
1
1036.46
22.0684
1
1036.51
33.4338
1
1036.56
8.30744
1
1036.61
-0.320683
1
1036.66
18.5145
1
1036.71
1.25567
1
1036.76
25.7189
1
1036.81
17.9205
1
1036.86
26.8709
1
1036.91
25.6579
1
1036.96
6.53318
1
1037.01
4.06964
1
1037.06
-1.81192
1
1037.11
-0.175084
1
1037.16
-0.188564
1
1037.21
-11.2699
1
1037.26
-15.6917
1
1037.31
-6.23708
1
1037.36
-6.73301
1
1037.41
-0.235253
1
1037.46
10.3945
1
1037.51
10.0545
1
1037.56
-19.4511
1
1037.61
-5.57347
1
1037.66
-8.28048
1
1037.71
-10.6555
1
1037.76
15.8692
1
1037.81
1.42326
1
1037.86
10.7452
1
1037.91
-15.8064
1
1037.96
4.76975
1
1038.01
-3.04375
1
1038.06
8.44116
1
1038.11
19.9889
1
1038.16
-3.29813
1
1038.21
-3.13742
1
1038.26
9.13695
1
1038.31
-9.16297
1
1038.36
-11.0692
1
1038.41
-16.0218
1
1038.46
-9.66303
1
1038.51
-21.0405
1
1038.56
-8.54283
1
1038.61
4.97534
1
1038.66
-16.1839
1
1038.71
-15.0884
1
1038.76
2.18459
1
1038.81
16.2773
1
1038.86
-4.55229
1
1038.91
-0.530202
1
1038.96
9.59498
1
1039.01
-7.12591
1
1039.06
-11.1653
1
1039.11
-11.6532
1
1039.16
-11.1526
1
1039.21
7.07497
1
1039.26
-12.3676
1
1039.31
-12.9418
1
1039.36
-25.59
1
1039.41
-22.8096
1
1039.46
-4.09079
1
1039.51
-17.3984
1
1039.56
-4.18499
1
1039.61
-8.62249
1
1039.66
-10.5458
1
1039.71
-3.7872
1
1039.76
-11.0384
1
1039.81
-12.3709
1
1039.86
-22.5307
1
1039.91
-13.1936
1
1039.96
-24.3836
1
1040.01
-37.2227
1
1040.06
3.18044
1
1040.11
3.24155
1
1040.16
3.11073
1
1040.21
0
1
1040.26
0
1
1040.31
0
1
1040.36
0
1
1040.41
0
1
1040.46
0
1
1040.51
0
1
1040.56
0
1
1040.61
0
1
&TiO
TiO lineshape
0
0
0
0
0
0
0
12
Casa Info Follows
0
0
0
0

PCA Coefs = 41396.7, -3191.99, 1103.12, 387.504, 
PCA Coefs = 41396.7, -3191.99, 1103.12, 387.504, -363.953, 
PCA Coefs = 41439, -2585.94, 1104.79, -371.422, -359.987, 128.966, 
c:\users\mark\owncloud\muelheim group\projects\tio2\analyzed data\experiment 2019-03-28_ti sheet_cec-1303 - vector analysis.vms
c:\users\mark\owncloud\muelheim group\projects\tio2\analyzed data\experiment 2019-03-28_ti sheet_cec-1303 - vector analysis.vms
C:\Users\pielsticker\Downloads\Ti\EX209_CEC303 Ti slow oxidation - vectro fit - irregular.vms
XPS
1e+037
Al
1486.61
1e+037
1e+037
1e+037
1e+037
1e+037
FAT
1e+037
1e+037
1e+037
1e+037
1e+037
1e+037
1e+037
1e+037
Ti
2p
-1
3
Kinetic Energy
eV
Intensity
d
transmission
d
pulse counting
1
1
1e+037
1e+037
1e+037
1e+037
3
MFP Exponent
d
0
ESCAPE DEPTH TYPE
d
1
PROPAGATION_CONVERGED
d
1
2406
0
1
0
1
0
1
986.61
0
1
986.71
0
1
986.81
0
1
986.91
0
1
987.01
0
1
987.11
0
1
987.21
0
1
987.31
0
1
987.41
427.081
1
987.51
418.506
1
987.61
421.294
1
987.71
440.148
1
987.81
443.528
1
987.91
430.838
1
988.01
445.739
1
988.11
424.025
1
988.21
434.13
1
988.31
418.792
1
988.41
428.149
1
988.51
454.731
1
988.61
439.937
1
988.71
440.084
1
988.81
432.384
1
988.91
432.304
1
989.01
440.641
1
989.11
446.848
1
989.21
426.341
1
989.31
427.43
1
989.41
433.208
1
989.51
424.875
1
989.61
432.054
1
989.71
420.255
1
989.81
436.188
1
989.91
437.574
1
990.01
442.909
1
990.11
437.73
1
990.21
421.943
1
990.31
412.513
1
990.41
435.891
1
990.51
431.311
1
990.61
432.78
1
990.71
433.572
1
990.81
418.188
1
990.91
409.864
1
991.01
422.085
1
991.11
426.173
1
991.21
444.271
1
991.31
414.74
1
991.41
436.211
1
991.51
426.44
1
991.61
422.63
1
991.71
419.722
1
991.81
433.338
1
991.91
436.796
1
992.01
436.845
1
992.11
430.264
1
992.21
409.348
1
992.31
408.522
1
992.41
437.968
1
992.51
445.551
1
992.61
438.706
1
992.71
442.301
1
992.81
436.554
1
992.91
427.755
1
993.01
444.831
1
993.11
456.361
1
993.21
439.465
1
993.31
450.223
1
993.41
444.027
1
993.51
436.61
1
993.61
442.322
1
993.71
448.84
1
993.81
443.012
1
993.91
447.565
1
994.01
442.503
1
994.11
431.631
1
994.21
441.927
1
994.31
439.397
1
994.41
446.213
1
994.51
436.637
1
994.61
431.379
1
994.71
439.383
1
994.81
437.913
1
994.91
437.081
1
995.01
451.356
1
995.11
441.987
1
995.21
433.982
1
995.31
435.758
1
995.41
438.365
1
995.51
440.249
1
995.61
441.327
1
995.71
470.201
1
995.81
461.681
1
995.91
465.133
1
996.01
457.167
1
996.11
452.422
1
996.21
450.82
1
996.31
465.086
1
996.41
461.236
1
996.51
459.164
1
996.61
447.345
1
996.71
449.258
1
996.81
459.59
1
996.91
458.529
1
997.01
473.17
1
997.11
477.211
1
997.21
459.326
1
997.31
460.033
1
997.41
459.628
1
997.51
445.237
1
997.61
452.9
1
997.71
462.703
1
997.81
459.284
1
997.91
451.872
1
998.01
456.31
1
998.11
469.161
1
998.21
467.634
1
998.31
475.462
1
998.41
474.394
1
998.51
456.623
1
998.61
469.981
1
998.71
480.575
1
998.81
487.905
1
998.91
476.11
1
999.01
472.079
1
999.11
488.889
1
999.21
482.388
1
999.31
473.36
1
999.41
485.498
1
999.51
489.987
1
999.61
486.287
1
999.71
499.989
1
999.81
499.325
1
999.91
503.847
1
1000.01
495.847
1
1000.11
472.305
1
1000.21
495.686
1
1000.31
470.454
1
1000.41
456.9
1
1000.51
470.1
1
1000.61
477.155
1
1000.71
488.566
1
1000.81
501.371
1
1000.91
487.255
1
1001.01
491.032
1
1001.11
485.732
1
1001.21
504.469
1
1001.31
498.971
1
1001.41
487.565
1
1001.51
495.287
1
1001.61
492.023
1
1001.71
515.751
1
1001.81
524.072
1
1001.91
521.562
1
1002.01
511.741
1
1002.11
520.4
1
1002.21
503.72
1
1002.31
510.643
1
1002.41
513.259
1
1002.51
516.99
1
1002.61
517.098
1
1002.71
511.597
1
1002.81
514.602
1
1002.91
518.202
1
1003.01
511.706
1
1003.11
525.184
1
1003.21
517.952
1
1003.31
517.622
1
1003.41
524.306
1
1003.51
508.334
1
1003.61
516.65
1
1003.71
520.695
1
1003.81
527.955
1
1003.91
529.331
1
1004.01
533.794
1
1004.11
532.939
1
1004.21
517.49
1
1004.31
527.727
1
1004.41
538.381
1
1004.51
533.308
1
1004.61
521.561
1
1004.71
544.611
1
1004.81
527.324
1
1004.91
532.448
1
1005.01
570.213
1
1005.11
563.09
1
1005.21
541.792
1
1005.31
542.99
1
1005.41
559.25
1
1005.51
545.665
1
1005.61
543.146
1
1005.71
526.3
1
1005.81
537.531
1
1005.91
572.365
1
1006.01
555.441
1
1006.11
549.727
1
1006.21
551.249
1
1006.31
548.66
1
1006.41
551.261
1
1006.51
563.665
1
1006.61
576.201
1
1006.71
577.334
1
1006.81
567.664
1
1006.91
553.853
1
1007.01
558.785
1
1007.11
584.367
1
1007.21
581.728
1
1007.31
565.461
1
1007.41
575.372
1
1007.51
562.378
1
1007.61
563.918
1
1007.71
558.304
1
1007.81
554.263
1
1007.91
548.855
1
1008.01
560.082
1
